# Interaction cross-sections, 1/cm
# Date: 2021-05-31 21:02:48.404805
# Generated from NCrystal (https://github.com/mctools/ncrystal)
# Reference: X.-X. Cai and T. Kittelmann, Comp. Phys. Comm. 246 (2020) 106851
# Source file: Ni_sg225.ncmat
# wavelength[A]	sigma_tot[1/cm]
0.51	1.87736
0.52	1.8757
0.53	1.87245
0.54	1.86932
0.55	1.86889
0.56	1.86616
0.57	1.8645
0.58	1.86286
0.59	1.86153
0.6	1.85831
0.61	1.85868
0.62	1.85181
0.63	1.85462
0.64	1.85505
0.65	1.85556
0.66	1.84908
0.67	1.85425
0.68	1.85617
0.69	1.85332
0.7	1.84987
0.71	1.84065
0.72	1.84325
0.73	1.85038
0.74	1.8483
0.75	1.85617
0.76	1.85906
0.77	1.85549
0.78	1.84504
0.79	1.84681
0.8	1.85594
0.81	1.85737
0.82	1.84728
0.83	1.85705
0.84	1.85285
0.85	1.86313
0.86	1.85171
0.87	1.85071
0.88	1.86142
0.89	1.86927
0.9	1.88067
0.91	1.89246
0.92	1.85742
0.93	1.86891
0.94	1.88076
0.95	1.85677
0.96	1.86854
0.97	1.88064
0.98	1.87174
0.99	1.83938
1	1.85109
1.01	1.86311
1.02	1.86686
1.03	1.8793
1.04	1.89202
1.05	1.90502
1.06	1.9183
1.07	1.90036
1.08	1.8806
1.09	1.89349
1.1	1.90663
1.11	1.92003
1.12	1.89503
1.13	1.90823
1.14	1.92166
1.15	1.93533
1.16	1.94923
1.17	1.96337
1.18	1.91738
1.19	1.93094
1.2	1.84177
1.21	1.85402
1.22	1.86648
1.23	1.87912
1.24	1.89196
1.25	1.87431
1.26	1.88703
1.27	1.89993
1.28	1.91301
1.29	1.92627
1.3	1.9397
1.31	1.9533
1.32	1.96708
1.33	1.98103
1.34	1.99515
1.35	2.00943
1.36	1.9095
1.37	1.92242
1.38	1.9355
1.39	1.94873
1.4	1.96211
1.41	1.97564
1.42	1.98931
1.43	2.00313
1.44	1.90994
1.45	1.92255
1.46	1.93529
1.47	1.94816
1.48	1.96116
1.49	1.97429
1.5	1.98755
1.51	2.00093
1.52	2.01444
1.53	2.02807
1.54	2.04183
1.55	2.05571
1.56	2.06971
1.57	2.08383
1.58	1.94721
1.59	1.95966
1.6	1.97222
1.61	1.98488
1.62	1.83224
1.63	1.84307
1.64	1.85398
1.65	1.86499
1.66	1.87608
1.67	1.88727
1.68	1.89855
1.69	1.90991
1.7	1.92136
1.71	1.9329
1.72	1.94453
1.73	1.95624
1.74	1.96804
1.75	1.97993
1.76	1.9919
1.77	1.94745
1.78	1.95895
1.79	1.97053
1.8	1.98219
1.81	1.99393
1.82	2.00575
1.83	2.01764
1.84	2.02961
1.85	2.04166
1.86	2.05379
1.87	2.066
1.88	2.07828
1.89	2.09064
1.9	2.10307
1.91	2.11558
1.92	2.12817
1.93	2.14082
1.94	2.15356
1.95	2.16637
1.96	2.17925
1.97	2.19221
1.98	2.20524
1.99	2.21834
2	2.23152
2.01	2.24476
2.02	2.25809
2.03	2.27148
2.04	2.16159
2.05	2.17391
2.06	2.1863
2.07	2.19876
2.08	2.21128
2.09	2.22386
2.1	2.23651
2.11	2.24923
2.12	2.26201
2.13	1.8465
2.14	1.85538
2.15	1.8643
2.16	1.87326
2.17	1.88227
2.18	1.89133
2.19	1.90042
2.2	1.90957
2.21	1.91875
2.22	1.92798
2.23	1.93725
2.24	1.94657
2.25	1.95593
2.26	1.96533
2.27	1.97477
2.28	1.98426
2.29	1.99379
2.3	2.00336
2.31	2.01297
2.32	2.02263
2.33	2.03233
2.34	2.04207
2.35	2.05185
2.36	2.06167
2.37	2.07154
2.38	2.08144
2.39	2.09139
2.4	2.10138
2.41	2.11141
2.42	2.12148
2.43	2.13159
2.44	2.14174
2.45	2.15193
2.46	2.16217
2.47	2.17244
2.48	2.18275
2.49	2.19311
2.5	1.84013
2.51	1.84766
2.52	1.85521
2.53	1.86278
2.54	1.87039
2.55	1.87802
2.56	1.88569
2.57	1.89338
2.58	1.90109
2.59	1.90884
2.6	1.91661
2.61	1.92441
2.62	1.93224
2.63	1.9401
2.64	1.94798
2.65	1.95589
2.66	1.96383
2.67	1.97179
2.68	1.97979
2.69	1.9878
2.7	1.99585
2.71	2.00392
2.72	2.01202
2.73	2.02015
2.74	2.0283
2.75	2.03648
2.76	2.04469
2.77	2.05292
2.78	2.06118
2.79	2.06947
2.8	2.07778
2.81	2.08612
2.82	2.09448
2.83	2.10287
2.84	2.11129
2.85	2.11973
2.86	2.1282
2.87	2.1367
2.88	2.14522
2.89	2.15377
2.9	2.16234
2.91	2.17094
2.92	2.17956
2.93	2.18821
2.94	2.19689
2.95	2.20559
2.96	2.21432
2.97	2.22307
2.98	2.23185
2.99	2.24065
3	2.24948
3.01	2.25834
3.02	2.26722
3.03	2.27612
3.04	2.28506
3.05	2.29401
3.06	2.30299
3.07	2.312
3.08	2.32103
3.09	2.33009
3.1	2.33917
3.11	2.34828
3.12	2.35741
3.13	2.36657
3.14	2.37575
3.15	2.38496
3.16	2.39419
3.17	2.40345
3.18	2.41273
3.19	2.42204
3.2	2.43137
3.21	2.44072
3.22	2.4501
3.23	2.45951
3.24	2.46894
3.25	2.4784
3.26	2.48788
3.27	2.49738
3.28	2.50691
3.29	2.51646
3.3	2.52604
3.31	2.53564
3.32	2.54527
3.33	2.55492
3.34	2.5646
3.35	2.5743
3.36	2.58403
3.37	2.59377
3.38	2.60355
3.39	2.61335
3.4	2.62317
3.41	2.63302
3.42	2.64289
3.43	2.65278
3.44	2.6627
3.45	2.67265
3.46	2.68261
3.47	2.69261
3.48	2.70262
3.49	2.71266
3.5	2.72273
3.51	2.73282
3.52	2.74293
3.53	2.20615
3.54	2.21321
3.55	2.22028
3.56	2.22737
3.57	2.23447
3.58	2.24159
3.59	2.24873
3.6	2.25588
3.61	2.26304
3.62	2.27022
3.63	2.27741
3.64	2.28462
3.65	2.29185
3.66	2.29909
3.67	2.30634
3.68	2.31361
3.69	2.3209
3.7	2.3282
3.71	2.33551
3.72	2.34284
3.73	2.35019
3.74	2.35755
3.75	2.36492
3.76	2.37231
3.77	2.37972
3.78	2.38714
3.79	2.39457
3.8	2.40202
3.81	2.40949
3.82	2.41697
3.83	2.42446
3.84	2.43197
3.85	2.4395
3.86	2.44703
3.87	2.45459
3.88	2.46216
3.89	2.46974
3.9	2.47734
3.91	2.48495
3.92	2.49258
3.93	2.50022
3.94	2.50788
3.95	2.51555
3.96	2.52324
3.97	2.53094
3.98	2.53866
3.99	2.54639
4	2.55413
4.01	2.56189
4.02	2.56967
4.03	2.57746
4.04	2.58526
4.05	2.59308
4.06	2.60091
4.07	1.47095
4.08	1.47321
4.09	1.47548
4.1	1.47775
4.11	1.48001
4.12	1.48228
4.13	1.48455
4.14	1.48682
4.15	1.48909
4.16	1.49136
4.17	1.49363
4.18	1.49591
4.19	1.49818
4.2	1.50046
4.21	1.50273
4.22	1.50501
4.23	1.50728
4.24	1.50956
4.25	1.51184
4.26	1.51412
4.27	1.5164
4.28	1.51868
4.29	1.52096
4.3	1.52324
4.31	1.52553
4.32	1.52781
4.33	1.53009
4.34	1.53238
4.35	1.53466
4.36	1.53695
4.37	1.53924
4.38	1.54152
4.39	1.54381
4.4	1.5461
4.41	1.54839
4.42	1.55068
4.43	1.55297
4.44	1.55526
4.45	1.55755
4.46	1.55985
4.47	1.56214
4.48	1.56443
4.49	1.56673
4.5	1.56902
4.51	1.57132
4.52	1.57362
4.53	1.57591
4.54	1.57821
4.55	1.58051
4.56	1.58281
4.57	1.58511
4.58	1.58741
4.59	1.58971
4.6	1.59201
4.61	1.59431
4.62	1.59661
4.63	1.59891
4.64	1.60122
4.65	1.60352
4.66	1.60582
4.67	1.60813
4.68	1.61043
4.69	1.61274
4.7	1.61504
4.71	1.61735
4.72	1.61966
4.73	1.62196
4.74	1.62427
4.75	1.62658
4.76	1.62889
4.77	1.6312
4.78	1.63351
4.79	1.63582
4.8	1.63813
4.81	1.64044
4.82	1.64275
4.83	1.64507
4.84	1.64738
4.85	1.64969
4.86	1.65201
4.87	1.65432
4.88	1.65663
4.89	1.65895
4.9	1.66126
4.91	1.66358
4.92	1.6659
4.93	1.66821
4.94	1.67053
4.95	1.67285
4.96	1.67516
4.97	1.67748
4.98	1.6798
4.99	1.68212
5	1.68444
5.01	1.68676
5.02	1.68908
5.03	1.6914
5.04	1.69372
5.05	1.69604
5.06	1.69836
5.07	1.70069
5.08	1.70301
5.09	1.70533
5.1	1.70765
5.11	1.70998
5.12	1.7123
5.13	1.71462
5.14	1.71695
5.15	1.71927
5.16	1.7216
5.17	1.72392
5.18	1.72625
5.19	1.72858
5.2	1.7309
5.21	1.73323
5.22	1.73556
5.23	1.73789
5.24	1.74021
5.25	1.74254
5.26	1.74487
5.27	1.7472
5.28	1.74953
5.29	1.75186
5.3	1.75419
5.31	1.75652
5.32	1.75885
5.33	1.76118
5.34	1.76351
5.35	1.76584
5.36	1.76817
5.37	1.77051
5.38	1.77284
5.39	1.77517
5.4	1.7775
5.41	1.77984
5.42	1.78217
5.43	1.7845
5.44	1.78684
5.45	1.78917
5.46	1.79151
5.47	1.79384
5.48	1.79618
5.49	1.79851
5.5	1.80085
5.51	1.80318
